Wavelength(nm)	n	k
330	1.54393	1.002586E-06
333.12	1.5431	8.71E-07
336.89	1.5422	7.6E-07
340.65	1.5413	6.83E-07
344.41	1.5405	6.27E-07
348.17	1.5397	5.88E-07
351.93	1.5389	5.6E-07
355.68	1.5382	5.4E-07
359.43	1.5374	5.25E-07
363.18	1.5367	5.14E-07
366.93	1.5361	5.06E-07
370.68	1.5354	5E-07
374.42	1.5348	4.95E-07
378.16	1.5342	4.92E-07
381.91	1.5336	4.89E-07
385.64	1.533	4.87E-07
389.38	1.5324	4.84E-07
393.11	1.5319	4.83E-07
396.85	1.5314	4.81E-07
400.58	1.5309	4.8E-07
404.31	1.5304	4.78E-07
408.03	1.5299	4.77E-07
411.76	1.5294	4.76E-07
415.48	1.529	4.75E-07
419.2	1.5286	4.74E-07
422.92	1.5281	4.73E-07
426.63	1.5277	4.72E-07
430.35	1.5273	4.71E-07
434.06	1.5269	4.69E-07
437.77	1.5266	4.68E-07
441.48	1.5262	4.67E-07
445.18	1.5258	4.66E-07
448.89	1.5255	4.65E-07
452.59	1.5251	4.64E-07
458.5	1.5246	4.63E-07
462.2	1.5243	4.62E-07
465.9	1.524	4.61E-07
469.59	1.5237	4.59E-07
473.28	1.5234	4.58E-07
476.97	1.5231	4.57E-07
480.66	1.5228	4.56E-07
484.34	1.5225	4.55E-07
488.02	1.5223	4.54E-07
491.7	1.522	4.53E-07
495.38	1.5217	4.52E-07
499.06	1.5215	4.51E-07
502.73	1.5213	4.5E-07
506.4	1.521	4.49E-07
510.08	1.5208	4.48E-07
513.74	1.5205	4.47E-07
517.41	1.5203	4.45E-07
521.07	1.5201	4.44E-07
524.74	1.5199	4.43E-07
528.4	1.5197	4.42E-07
532.05	1.5195	4.41E-07
535.71	1.5193	4.4E-07
539.36	1.5191	4.39E-07
543.02	1.5189	4.38E-07
546.67	1.5187	4.37E-07
550.31	1.5185	4.35E-07
553.96	1.5183	4.34E-07
557.6	1.5181	4.33E-07
561.25	1.518	4.32E-07
564.89	1.5178	4.31E-07
568.52	1.5176	4.3E-07
572.16	1.5174	4.29E-07
575.79	1.5173	4.27E-07
579.43	1.5171	4.26E-07
583.06	1.517	4.25E-07
586.68	1.5168	4.24E-07
590.31	1.5167	4.23E-07
593.93	1.5165	4.22E-07
597.55	1.5164	4.21E-07
601.17	1.5162	4.19E-07
604.79	1.5161	4.18E-07
608.41	1.5159	4.17E-07
612.02	1.5158	4.16E-07
615.63	1.5157	4.15E-07
619.24	1.5155	4.14E-07
622.85	1.5154	4.13E-07
626.45	1.5153	4.11E-07
630.06	1.5151	4.1E-07
633.66	1.515	4.09E-07
637.26	1.5149	4.08E-07
640.86	1.5148	4.07E-07
644.45	1.5147	4.06E-07
648.04	1.5145	4.05E-07
651.64	1.5144	4.03E-07
655.22	1.5143	4.02E-07
658.81	1.5142	4.01E-07
662.4	1.5141	4E-07
665.98	1.514	3.99E-07
669.56	1.5139	3.98E-07
673.14	1.5138	3.97E-07
676.72	1.5137	3.96E-07
680.29	1.5135	3.94E-07
683.86	1.5134	3.93E-07
687.44	1.5133	3.92E-07
691	1.5132	3.91E-07
694.57	1.5131	3.9E-07
698.14	1.513	3.89E-07
701.7	1.513	3.88E-07
705.26	1.5129	3.87E-07
708.82	1.5128	3.85E-07
712.38	1.5127	3.84E-07
715.93	1.5126	3.83E-07
719.48	1.5125	3.82E-07
723.03	1.5124	3.81E-07
726.58	1.5123	3.8E-07
730.13	1.5122	3.79E-07
733.67	1.5121	3.78E-07
737.22	1.5121	3.77E-07
740.76	1.512	3.76E-07
744.3	1.5119	3.75E-07
747.83	1.5118	3.74E-07
751.37	1.5117	3.73E-07
754.9	1.5116	3.71E-07
758.43	1.5116	3.7E-07
761.96	1.5115	3.69E-07
765.48	1.5114	3.68E-07
769.01	1.5113	3.67E-07
772.53	1.5113	3.66E-07
776.05	1.5112	3.65E-07
779.57	1.5111	3.64E-07
783.09	1.511	3.63E-07
786.6	1.511	3.62E-07
790.11	1.5109	3.61E-07
793.62	1.5108	3.6E-07
797.13	1.5107	3.59E-07
800.64	1.5107	3.58E-07
804.14	1.5106	3.57E-07
807.64	1.5105	3.56E-07
811.14	1.5105	3.55E-07
814.64	1.5104	3.54E-07
818.14	1.5103	3.53E-07
821.63	1.5103	3.52E-07
825.12	1.5102	3.51E-07
828.61	1.5101	3.5E-07
832.1	1.5101	3.49E-07
835.59	1.51	3.48E-07
839.07	1.5099	3.47E-07
842.55	1.5099	3.46E-07
846.03	1.5098	3.45E-07
849.51	1.5098	3.44E-07
852.98	1.5097	3.43E-07
856.46	1.5096	3.42E-07
861.32	1.5095	3.41E-07
866.17	1.5095	3.4E-07
869.64	1.5094	3.39E-07
873.1	1.5093	3.38E-07
876.57	1.5093	3.37E-07
880.03	1.5092	3.36E-07
883.48	1.5092	3.35E-07
886.94	1.5091	3.34E-07
890.39	1.5091	3.33E-07
893.84	1.509	3.32E-07
897.29	1.5089	3.31E-07
900.74	1.5089	3.31E-07
904.19	1.5088	3.3E-07
907.63	1.5088	3.29E-07
911.07	1.5087	3.28E-07
914.51	1.5087	3.27E-07
917.95	1.5086	3.26E-07
921.39	1.5086	3.25E-07
924.82	1.5085	3.24E-07
928.25	1.5085	3.24E-07
931.68	1.5084	3.23E-07
935.11	1.5083	3.22E-07
938.53	1.5083	3.21E-07
941.96	1.5082	3.2E-07
946.06	1.5082	3.19E-07
950.85	1.5081	3.18E-07
955.63	1.508	3.17E-07
960.41	1.508	3.16E-07
965.18	1.5079	3.14E-07
969.95	1.5078	3.13E-07
974.72	1.5078	3.12E-07
979.53	1.5077	3.11E-07
984.92	1.5076	3.1E-07
990.35	1.5075	3.08E-07
995.1	1.5075	3.07E-07
999.84	1.5074	3.06E-07
1004.6	1.5073	3.05E-07
1009.5	1.5073	3.04E-07
1014.7	1.5072	3.03E-07
1019.5	1.5071	3.02E-07
1024.2	1.5071	3.01E-07
1028.9	1.507	3E-07
1034.3	1.5069	2.98E-07
1039	1.5069	2.97E-07
1043.7	1.5068	2.96E-07
1048.4	1.5067	2.95E-07
1053.1	1.5067	2.94E-07
1057.8	1.5066	2.93E-07
1062.5	1.5066	2.92E-07
1067.2	1.5065	2.91E-07
1071.9	1.5064	2.9E-07
1077.2	1.5064	2.89E-07
1081.9	1.5063	2.88E-07
1087.3	1.5062	2.87E-07
1092.1	1.5062	2.86E-07
1097.2	1.5061	2.85E-07
1106.1	1.506	2.83E-07
1121.6	1.5058	2.8E-07
1137.1	1.5056	2.77E-07
1152.5	1.5054	2.74E-07
1167.9	1.5052	2.71E-07
1183.3	1.505	2.68E-07
1198.7	1.5048	2.65E-07
1214	1.5047	2.63E-07
1229.3	1.5045	2.6E-07
1244.6	1.5043	2.57E-07
1259.9	1.5041	2.55E-07
1275.1	1.5039	2.52E-07
1290.4	1.5037	2.5E-07
1305.5	1.5036	2.47E-07
1320.7	1.5034	2.45E-07
1335.8	1.5032	2.42E-07
1351	1.503	2.4E-07
1366	1.5028	2.38E-07
1381.1	1.5027	2.35E-07
1396.1	1.5025	2.33E-07
1411.2	1.5023	2.31E-07
1426.1	1.5021	2.29E-07
1441.1	1.5019	2.27E-07
1456	1.5018	2.25E-07
1471	1.5016	2.23E-07
1485.8	1.5014	2.21E-07
1500.7	1.5012	2.19E-07
1515.5	1.5011	2.17E-07
1530.3	1.5009	2.15E-07
1545.1	1.5007	2.14E-07
1559.9	1.5005	2.12E-07
1574.6	1.5003	2.1E-07
1589.3	1.5002	2.08E-07
1604	1.5	2.07E-07
1618.7	1.4998	2.05E-07
1633.3	1.4996	2.03E-07
1647.9	1.4994	2.02E-07
1662.5	1.4993	2E-07
1677	1.4991	1.99E-07
1691.6	1.4989	1.97E-07
1706.1	1.4987	1.95E-07
1710	1.4986	0
1715	1.4985	0
1720	1.4985	0
1725	1.4984	0
1730	1.4983	0
1735	1.4983	0
1740	1.4982	0
1745	1.4981	0
1750	1.4981	0
1755	1.498	0
1760	1.4979	0
1765	1.4979	0
1770	1.4978	0
1775	1.4977	0
1780	1.4977	0
1785	1.4976	0
1790	1.4975	0
1795	1.4974	0
1800	1.4974	0
1805	1.4973	0
1810	1.4972	0
1815	1.4972	0
1820	1.4971	0
1825	1.497	0
1830	1.497	0
1835	1.4969	0
1840	1.4968	0
1845	1.4968	0
1850	1.4967	0
1855	1.4966	0
1860	1.4965	0
1865	1.4965	0
1870	1.4964	0
1875	1.4963	0
1880	1.4963	0
1885	1.4962	0
1890	1.4961	0
1895	1.496	0
1900	1.496	0
1905	1.4959	0
1910	1.4958	0
1915	1.4958	0
1920	1.4957	0
1925	1.4956	0
1930	1.4955	0
1935	1.4955	0
1940	1.4954	0
1945	1.4953	0
1950	1.4952	0
1955	1.4952	0
1960	1.4951	0
1965	1.495	0
1970	1.495	0
1975	1.4949	0
1980	1.4948	0
1985	1.4947	0
1990	1.4947	0
1995	1.4946	0
2000	1.4945	0
2005	1.4944	0
2010	1.4944	0
2015	1.4943	0
2020	1.4942	0
2025	1.4941	0
2030	1.494	0
2035	1.494	0
2040	1.4939	0
2045	1.4938	0
2050	1.4937	0
2055	1.4937	0
2060	1.4936	0
2065	1.4935	0
2070	1.4934	0
2075	1.4934	0
2080	1.4933	0
2085	1.4932	0
2090	1.4931	0
2095	1.493	0
2100	1.493	0
2105	1.4929	0
2110	1.4928	0
2115	1.4927	0
2120	1.4926	0
2125	1.4926	0
2130	1.4925	0
2135	1.4924	0
2140	1.4923	0
2145	1.4922	0
2150	1.4922	0
2155	1.4921	0
2160	1.492	0
2165	1.4919	0
2170	1.4918	0
2175	1.4918	0
2180	1.4917	0
2185	1.4916	0
2190	1.4915	0
2195	1.4914	0
2200	1.4913	0
2205	1.4913	0
2210	1.4912	0
2215	1.4911	0
2220	1.491	0
2225	1.4909	0
2230	1.4908	0
2235	1.4908	0
2240	1.4907	0
2245	1.4906	0
2250	1.4905	0
2255	1.4904	0
2260	1.4903	0
2265	1.4903	0
2270	1.4902	0
2275	1.4901	0
2280	1.49	0
2285	1.4899	0
2290	1.4898	0
2295	1.4897	0
2300	1.4897	0
2305	1.4896	0
2310	1.4895	0
2315	1.4894	0
2320	1.4893	0
2325	1.4892	0
2330	1.4891	0
2335	1.489	0
2340	1.489	0
2345	1.4889	0
2350	1.4888	0
2355	1.4887	0
2360	1.4886	0
2365	1.4885	0
2370	1.4884	0
2375	1.4883	0
2380	1.4882	0
2385	1.4882	0
2390	1.4881	0
2395	1.488	0
2400	1.4879	0
2405	1.4878	0
2410	1.4877	0
2415	1.4876	0
2420	1.4875	0
2425	1.4874	0
2430	1.4873	0
2435	1.4872	0
2440	1.4871	0
2445	1.4871	0
2450	1.487	0
2455	1.4869	0
2460	1.4868	0
2465	1.4867	0
2470	1.4866	0
2475	1.4865	0
2480	1.4864	0
2485	1.4863	0
2490	1.4862	0
2495	1.4861	0
2500	1.486	0
